E[MeV]  W[MeV]  pc[MeV]  v/c
 0.000   0.511   0.000  0.0000
 0.010   0.521   0.102  0.1950
 0.020   0.531   0.144  0.2719
 0.030   0.541   0.178  0.3284
 0.040   0.551   0.206  0.3741
 0.050   0.561   0.232  0.4127
 0.060   0.571   0.255  0.4462
 0.070   0.581   0.276  0.4759
 0.080   0.591   0.297  0.5024
 0.090   0.601   0.316  0.5264
 0.100   0.611   0.335  0.5482
 0.110   0.621   0.353  0.5682
 0.120   0.631   0.370  0.5867
 0.130   0.641   0.387  0.6037
 0.140   0.651   0.403  0.6196
 0.150   0.661   0.419  0.6343
 0.160   0.671   0.435  0.6481
 0.170   0.681   0.450  0.6610
 0.180   0.691   0.465  0.6731
 0.190   0.701   0.480  0.6846
 0.200   0.711   0.494  0.6953
 0.210   0.721   0.509  0.7055
 0.220   0.731   0.523  0.7151
 0.230   0.741   0.537  0.7242
 0.240   0.751   0.550  0.7328
 0.250   0.761   0.564  0.7410
 0.260   0.771   0.577  0.7488
 0.270   0.781   0.591  0.7562
 0.280   0.791   0.604  0.7633
 0.290   0.801   0.617  0.7701
 0.300   0.811   0.630  0.7765
 0.310   0.821   0.643  0.7827
 0.320   0.831   0.655  0.7886
 0.330   0.841   0.668  0.7942
 0.340   0.851   0.680  0.7996
 0.350   0.861   0.693  0.8048
 0.360   0.871   0.705  0.8098
 0.370   0.881   0.718  0.8146
 0.380   0.891   0.730  0.8192
 0.390   0.901   0.742  0.8236
 0.400   0.911   0.754  0.8279
 0.410   0.921   0.766  0.8320
 0.420   0.931   0.778  0.8359
 0.430   0.941   0.790  0.8397
 0.440   0.951   0.802  0.8434
 0.450   0.961   0.814  0.8469
 0.460   0.971   0.826  0.8503
 0.470   0.981   0.837  0.8536
 0.480   0.991   0.849  0.8568
 0.490   1.001   0.861  0.8599
 0.500   1.011   0.872  0.8629
 0.510   1.021   0.884  0.8657
 0.520   1.031   0.895  0.8685
 0.530   1.041   0.907  0.8712
 0.540   1.051   0.918  0.8738
 0.550   1.061   0.930  0.8764
 0.560   1.071   0.941  0.8788
 0.570   1.081   0.953  0.8812
 0.580   1.091   0.964  0.8835
 0.590   1.101   0.975  0.8858
 0.600   1.111   0.987  0.8879
 0.610   1.121   0.998  0.8901
 0.620   1.131   1.009  0.8921
 0.630   1.141   1.020  0.8941
 0.640   1.151   1.031  0.8960
 0.650   1.161   1.042  0.8979
 0.660   1.171   1.054  0.8998
 0.670   1.181   1.065  0.9015
 0.680   1.191   1.076  0.9033
 0.690   1.201   1.087  0.9050
 0.700   1.211   1.098  0.9066
 0.710   1.221   1.109  0.9082
 0.720   1.231   1.120  0.9098
 0.730   1.241   1.131  0.9113
 0.740   1.251   1.142  0.9128
 0.750   1.261   1.153  0.9142
 0.760   1.271   1.164  0.9156
 0.770   1.281   1.175  0.9170
 0.780   1.291   1.186  0.9183
 0.790   1.301   1.196  0.9196
 0.800   1.311   1.207  0.9209
 0.810   1.321   1.218  0.9222
 0.820   1.331   1.229  0.9234
 0.830   1.341   1.240  0.9246
 0.840   1.351   1.251  0.9257
 0.850   1.361   1.261  0.9268
 0.860   1.371   1.272  0.9279
 0.870   1.381   1.283  0.9290
 0.880   1.391   1.294  0.9301
 0.890   1.401   1.304  0.9311
 0.900   1.411   1.315  0.9321
 0.910   1.421   1.326  0.9331
 0.920   1.431   1.337  0.9341
 0.930   1.441   1.347  0.9350
 0.940   1.451   1.358  0.9359
 0.950   1.461   1.369  0.9368
 0.960   1.471   1.379  0.9377
 0.970   1.481   1.390  0.9386
 0.980   1.491   1.401  0.9394
 0.990   1.501   1.411  0.9403
 1.000   1.511   1.422  0.9411
 1.010   1.521   1.433  0.9419
 1.020   1.531   1.443  0.9427
 1.030   1.541   1.454  0.9434
 1.040   1.551   1.464  0.9442
 1.050   1.561   1.475  0.9449
 1.060   1.571   1.486  0.9456
 1.070   1.581   1.496  0.9463
 1.080   1.591   1.507  0.9470
 1.090   1.601   1.517  0.9477
 1.100   1.611   1.528  0.9484
 1.110   1.621   1.538  0.9490
 1.120   1.631   1.549  0.9497
 1.130   1.641   1.559  0.9503
 1.140   1.651   1.570  0.9509
 1.150   1.661   1.580  0.9515
 1.160   1.671   1.591  0.9521
 1.170   1.681   1.601  0.9527
 1.180   1.691   1.612  0.9532
 1.190   1.701   1.622  0.9538
 1.200   1.711   1.633  0.9544
 1.210   1.721   1.643  0.9549
 1.220   1.731   1.654  0.9554
 1.230   1.741   1.664  0.9560
 1.240   1.751   1.675  0.9565
 1.250   1.761   1.685  0.9570
 1.260   1.771   1.696  0.9575
 1.270   1.781   1.706  0.9580
 1.280   1.791   1.717  0.9584
 1.290   1.801   1.727  0.9589
 1.300   1.811   1.737  0.9594
 1.310   1.821   1.748  0.9598
 1.320   1.831   1.758  0.9603
 1.330   1.841   1.769  0.9607
 1.340   1.851   1.779  0.9611
 1.350   1.861   1.789  0.9616
 1.360   1.871   1.800  0.9620
 1.370   1.881   1.810  0.9624
 1.380   1.891   1.821  0.9628
 1.390   1.901   1.831  0.9632
 1.400   1.911   1.841  0.9636
 1.410   1.921   1.852  0.9640
 1.420   1.931   1.862  0.9644
 1.430   1.941   1.873  0.9647
 1.440   1.951   1.883  0.9651
 1.450   1.961   1.893  0.9655
 1.460   1.971   1.904  0.9658
 1.470   1.981   1.914  0.9662
 1.480   1.991   1.924  0.9665
 1.490   2.001   1.935  0.9668
 1.500   2.011   1.945  0.9672
 1.510   2.021   1.955  0.9675
 1.520   2.031   1.966  0.9678
 1.530   2.041   1.976  0.9682
 1.540   2.051   1.986  0.9685
 1.550   2.061   1.997  0.9688
 1.560   2.071   2.007  0.9691
 1.570   2.081   2.017  0.9694
 1.580   2.091   2.028  0.9697
 1.590   2.101   2.038  0.9700
 1.600   2.111   2.048  0.9703
 1.610   2.121   2.059  0.9705
 1.620   2.131   2.069  0.9708
 1.630   2.141   2.079  0.9711
 1.640   2.151   2.089  0.9714
 1.650   2.161   2.100  0.9716
 1.660   2.171   2.110  0.9719
 1.670   2.181   2.120  0.9722
 1.680   2.191   2.131  0.9724
 1.690   2.201   2.141  0.9727
 1.700   2.211   2.151  0.9729
 1.710   2.221   2.161  0.9732
 1.720   2.231   2.172  0.9734
 1.730   2.241   2.182  0.9737
 1.740   2.251   2.192  0.9739
 1.750   2.261   2.202  0.9741
 1.760   2.271   2.213  0.9744
 1.770   2.281   2.223  0.9746
 1.780   2.291   2.233  0.9748
 1.790   2.301   2.244  0.9750
 1.800   2.311   2.254  0.9752
 1.810   2.321   2.264  0.9755
 1.820   2.331   2.274  0.9757
 1.830   2.341   2.285  0.9759
 1.840   2.351   2.295  0.9761
 1.850   2.361   2.305  0.9763
 1.860   2.371   2.315  0.9765
 1.870   2.381   2.326  0.9767
 1.880   2.391   2.336  0.9769
 1.890   2.401   2.346  0.9771
 1.900   2.411   2.356  0.9773
 1.910   2.421   2.366  0.9775
 1.920   2.431   2.377  0.9777
 1.930   2.441   2.387  0.9778
 1.940   2.451   2.397  0.9780
 1.950   2.461   2.407  0.9782
 1.960   2.471   2.418  0.9784
 1.970   2.481   2.428  0.9786
 1.980   2.491   2.438  0.9787
 1.990   2.501   2.448  0.9789
 2.000   2.511   2.458  0.9791
